# Columns: 2theta[deg]  Intensity[counts]  ESD[counts]
13.374211 33223.281 182.273
13.391239 31478.693 177.422
13.408268 29451.285 171.614
13.425296 29313.146 171.211
13.442326 27994.650 167.316
13.459355 27649.234 166.281
13.476385 27352.424 165.386
13.493415 27048.783 164.465
13.510445 26953.830 164.176
13.527476 26907.125 164.034
13.544507 26858.291 163.885
13.561538 26863.576 163.901
13.578570 26833.291 163.809
13.595601 26804.895 163.722
13.612634 26816.158 163.756
13.629666 26844.734 163.844
13.646699 26818.951 163.765
13.663732 26815.518 163.754
13.680765 26783.361 163.656
13.697799 26807.498 163.730
13.714833 26850.467 163.861
13.731867 26864.102 163.903
13.748902 26847.076 163.851
13.765937 26843.168 163.839
13.782972 26839.070 163.826
13.800007 26845.018 163.844
13.817043 26847.551 163.852
13.834079 26820.955 163.771
13.851116 26852.631 163.868
13.868152 26875.658 163.938
13.885189 26886.371 163.971
13.902227 26869.920 163.920
13.919264 26870.580 163.922
13.936302 26889.535 163.980
13.953340 26878.908 163.948
13.970379 27581.133 166.076
13.987418 29034.271 170.394
14.004457 29912.721 172.953
14.021497 30927.465 175.862
14.038536 31351.754 177.064
14.055577 31454.449 177.354
14.072617 31497.771 177.476
14.089658 31505.529 177.498
14.106699 31488.266 177.449
14.123740 31458.041 177.364
14.140782 31490.643 177.456
14.157824 31540.053 177.595
14.174866 31505.887 177.499
14.191909 31498.947 177.479
14.208952 31477.502 177.419
14.225995 31503.561 177.492
14.243039 31522.422 177.546
14.260083 31495.832 177.471
14.277127 31520.320 177.540
14.294171 31560.477 177.653
14.311216 31531.004 177.570
14.328261 31507.029 177.502
14.345307 31519.754 177.538
14.362353 31553.941 177.634
14.379399 31566.197 177.669
14.396445 31558.521 177.647
14.413492 31547.564 177.616
14.430539 31552.191 177.629
14.447587 31570.135 177.680
14.464634 31602.566 177.771
14.481682 31603.045 177.772
14.498731 31604.754 177.777
14.515780 31595.961 177.753
14.532829 31632.477 177.855
14.549878 31644.920 177.890
14.566928 31664.062 177.944
14.583978 31658.021 177.927
14.601028 31674.893 177.974
14.618079 31677.660 177.982
14.635130 31672.385 177.967
14.652181 31664.729 177.946
14.669232 31710.078 178.073
14.686284 31689.707 178.016
14.703337 31699.270 178.043
14.720389 31717.199 178.093
14.737442 31736.869 178.148
14.754495 31754.848 178.199
14.771549 31754.445 178.198
14.788603 31761.080 178.216
14.805657 31778.531 178.265
14.822712 31805.502 178.341
14.839767 31781.803 178.275
14.856822 31776.486 178.260
14.873878 31795.514 178.313
14.890933 31822.004 178.387
14.907990 31842.477 178.445
14.925046 31884.439 178.562
14.942103 31880.191 178.550
14.959160 31880.160 178.550
14.976218 31881.623 178.554
14.993276 31904.279 178.618
15.010334 31909.797 178.633
15.027393 31890.992 178.580
15.044452 31917.244 178.654
15.061511 31951.197 178.749
15.078570 31956.748 178.765
15.095630 31982.793 178.837
15.112690 31991.982 178.863
15.129751 32025.539 178.957
15.146812 32066.189 179.070
15.163873 32077.715 179.103
15.180935 32027.619 178.963
15.197997 32078.918 179.106
15.215059 32115.342 179.208
15.232122 32115.820 179.209
15.249185 32129.303 179.246
15.266248 32112.770 179.200
15.283312 32150.520 179.306
15.300376 32199.416 179.442
15.317440 32208.631 179.468
15.334504 32149.182 179.302
15.351569 32169.547 179.359
15.368635 32215.379 179.486
15.385701 32278.521 179.662
15.402767 32308.559 179.746
15.419833 32295.137 179.708
15.436900 32306.682 179.741
15.453967 32308.014 179.744
15.471034 32356.057 179.878
15.488102 32348.760 179.858
15.505170 32392.494 179.979
15.522238 32420.207 180.056
15.539307 32427.584 180.077
15.556376 32451.947 180.144
15.573446 32464.023 180.178
15.590516 32471.369 180.198
15.607586 32464.398 180.179
15.624656 32513.873 180.316
15.641727 32510.783 180.307
15.658798 32543.246 180.397
15.675870 32577.141 180.491
15.692942 32590.637 180.529
15.710014 32609.654 180.581
15.727087 32594.746 180.540
15.744160 32650.492 180.694
15.761233 32660.180 180.721
15.778307 32691.021 180.807
15.795381 32703.324 180.841
15.812455 32708.225 180.854
15.829530 32773.004 181.033
15.846605 32737.809 180.936
15.863681 32796.969 181.099
15.880756 32816.180 181.152
15.897833 32886.785 181.347
15.914909 32879.520 181.327
15.931986 32873.387 181.310
15.949063 32916.527 181.429
15.966141 32948.012 181.516
15.983219 32978.285 181.599
16.000297 33007.715 181.680
16.017376 33059.480 181.823
16.034455 33040.789 181.771
16.051534 33081.410 181.883
16.068614 33197.211 182.201
16.085694 33273.051 182.409
16.102774 33387.961 182.724
16.119855 33403.254 182.766
16.136936 33376.273 182.692
16.154018 33227.430 182.284
16.171100 33158.324 182.094
16.188182 33315.062 182.524
16.205265 33316.742 182.529
16.222347 33411.660 182.789
16.239431 33467.945 182.942
16.256515 33485.004 182.989
16.273599 33529.902 183.112
16.290683 33586.242 183.266
16.307768 33586.641 183.267
16.324853 33579.793 183.248
16.341939 33588.691 183.272
16.359024 33622.375 183.364
16.376111 33618.145 183.353
16.393197 33648.363 183.435
16.410284 33610.805 183.333
16.427372 33685.000 183.535
16.444459 33778.891 183.790
16.461547 33789.730 183.820
16.478636 33682.520 183.528
16.495725 33699.051 183.573
16.512814 33749.812 183.711
16.529904 33767.840 183.760
16.546993 33784.500 183.806
16.564084 33776.758 183.785
16.581174 33798.172 183.843
16.598266 33886.688 184.083
16.615357 33856.359 184.001
16.632449 33921.316 184.177
16.649541 33924.203 184.185
16.666633 33947.633 184.249
16.683726 33964.965 184.296
16.700820 33999.777 184.390
16.717913 34040.434 184.501
16.735007 34046.234 184.516
16.752102 34091.395 184.639
16.769197 34148.574 184.793
16.786292 34164.559 184.837
16.803387 34190.707 184.907
16.820483 34213.938 184.970
16.837580 34288.461 185.171
16.854676 34300.184 185.203
16.871773 34367.309 185.384
16.888871 34356.676 185.356
16.905969 34348.543 185.334
16.923067 34420.363 185.527
16.940165 34453.469 185.616
16.957264 34478.906 185.685
16.974364 34471.711 185.666
16.991463 34498.555 185.738
17.008563 34589.406 185.982
17.025664 34643.297 186.127
17.042765 34676.582 186.216
17.059866 34694.289 186.264
17.076968 34724.371 186.345
17.094070 34799.617 186.547
17.111172 34832.266 186.634
17.128275 34864.016 186.719
17.145378 34891.094 186.792
17.162481 34919.648 186.868
17.179585 34981.121 187.032
17.196690 35036.328 187.180
17.213794 35085.387 187.311
17.230899 35114.457 187.389
17.248005 35121.664 187.408
17.265111 35169.188 187.535
17.282217 35242.984 187.731
17.299324 35259.055 187.774
17.316431 35289.176 187.854
17.333538 35369.078 188.067
17.350646 35428.629 188.225
17.367754 35497.320 188.407
17.384863 35519.980 188.467
17.401972 35542.445 188.527
17.419081 35590.203 188.654
17.436191 35697.996 188.939
17.453301 35761.957 189.108
17.470411 35773.711 189.139
17.487522 35785.773 189.171
17.504634 35813.055 189.243
17.521745 35884.633 189.432
17.538858 35966.824 189.649
17.555970 35989.699 189.710
17.573083 36058.719 189.891
17.590196 36075.320 189.935
17.607310 36193.758 190.247
17.624424 36253.715 190.404
17.641538 36251.594 190.399
17.658653 36298.934 190.523
17.675769 36357.949 190.678
17.692884 36465.191 190.959
17.710000 36498.789 191.047
17.727117 36547.363 191.174
17.744234 36592.332 191.291
17.761351 36640.258 191.416
17.778469 36738.250 191.672
17.795587 36796.844 191.825
17.812705 36766.734 191.747
17.829824 36798.629 191.830
17.846943 36904.156 192.105
17.864063 37043.531 192.467
17.881183 37114.387 192.651
17.898304 37143.113 192.725
17.915424 37179.586 192.820
17.932546 37258.695 193.025
17.949667 37310.688 193.160
17.966789 37369.324 193.311
17.983912 37422.129 193.448
18.001035 37509.727 193.674
18.018158 37549.941 193.778
18.035282 37683.934 194.124
18.052406 37765.652 194.334
18.069530 37786.676 194.388
18.086655 37845.031 194.538
18.103781 37884.812 194.640
18.120906 37986.004 194.900
18.138033 38089.242 195.165
18.155159 38103.711 195.202
18.172286 38139.188 195.293
18.189414 38228.965 195.522
18.206541 38349.430 195.830
18.223670 38441.492 196.065
18.240798 38459.172 196.110
18.257927 38540.176 196.317
18.275057 38617.027 196.512
18.292186 38683.688 196.682
18.309317 38808.918 197.000
18.326447 38840.055 197.079
18.343578 38886.383 197.196
18.360710 38974.168 197.419
18.377842 39042.418 197.592
18.394974 39226.656 198.057
18.412107 39303.180 198.250
18.429240 39293.484 198.226
18.446374 39353.195 198.376
18.463508 39457.012 198.638
18.480642 39600.688 198.999
18.497777 39698.715 199.245
18.514912 39693.898 199.233
18.532048 39723.215 199.307
18.549184 39795.934 199.489
18.566320 39901.492 199.754
18.583457 40058.082 200.145
18.600595 40126.648 200.316
18.617732 40163.168 200.408
18.634870 40240.707 200.601
18.652009 40356.434 200.889
18.669148 40550.789 201.372
18.686287 40613.531 201.528
18.703427 40603.395 201.503
18.720568 40651.820 201.623
18.737708 40793.965 201.975
18.754849 40959.898 202.386
18.771991 41059.465 202.631
18.789133 41078.066 202.677
18.806275 41135.590 202.819
18.823418 41220.488 203.028
18.840561 41343.301 203.331
18.857705 41464.816 203.629
18.874849 41488.562 203.687
18.891994 41520.438 203.766
18.909139 41611.617 203.989
18.926284 41945.219 204.805
18.943430 42278.770 205.618
18.960576 42426.625 205.977
18.977723 42530.879 206.230
18.994870 42572.176 206.330
19.012017 42411.473 205.940
19.029165 42407.270 205.930
19.046314 42489.598 206.130
19.063462 42514.664 206.191
19.080612 42513.840 206.189
19.097761 42548.148 206.272
19.114911 42641.133 206.497
19.132062 42769.531 206.808
19.149213 42796.352 206.873
19.166364 42929.645 207.195
19.183516 43091.484 207.585
19.200668 43232.871 207.925
19.217821 43317.820 208.129
19.234974 43388.770 208.300
19.252128 43480.621 208.520
19.269282 43605.234 208.819
19.286436 43733.012 209.124
19.303591 43828.566 209.353
19.320746 43991.953 209.743
19.337902 44030.652 209.835
19.355058 44085.688 209.966
19.372215 44171.531 210.170
19.389372 44283.504 210.436
19.406530 44457.406 210.849
19.423687 44501.785 210.954
19.440846 44574.734 211.127
19.458005 44642.160 211.287
19.475164 44780.180 211.613
19.492324 44904.141 211.906
19.509484 45023.754 212.188
19.526644 45083.414 212.329
19.543805 45138.367 212.458
19.560967 45200.574 212.604
19.578129 45382.422 213.032
19.595291 45510.992 213.333
19.612454 45580.539 213.496
19.629617 45606.594 213.557
19.646781 45732.074 213.851
19.663945 45896.098 214.234
19.681110 45988.680 214.450
19.698275 46173.703 214.881
19.715440 46292.543 215.157
19.732606 46338.387 215.264
19.749772 46389.824 215.383
19.766939 46549.789 215.754
19.784106 46613.965 215.903
19.801274 46730.555 216.173
19.818442 46767.883 216.259
19.835611 46854.227 216.458
19.852780 46917.691 216.605
19.869950 47037.137 216.880
19.887120 47134.363 217.104
19.904290 47259.656 217.393
19.921461 47342.703 217.584
19.938632 47437.078 217.801
19.955804 47543.336 218.044
19.972976 47615.840 218.211
19.990149 47794.695 218.620
20.007322 47834.570 218.711
20.024495 47874.258 218.802
20.041670 47969.480 219.019
20.058844 48073.277 219.256
20.076019 48200.598 219.546
20.093194 48298.715 219.770
20.110370 48330.719 219.842
20.127547 48422.926 220.052
20.144723 48472.719 220.165
20.161901 48623.344 220.507
20.179078 48742.309 220.777
20.196256 48859.812 221.043
20.213435 48909.602 221.155
20.230614 48969.969 221.292
20.247794 49050.512 221.473
20.264974 49177.332 221.760
20.282154 49334.691 222.114
20.299335 49438.867 222.349
20.316516 49490.637 222.465
20.333698 49541.590 222.579
20.350880 49621.922 222.760
20.368063 49677.344 222.884
20.385246 49836.344 223.241
20.402430 49920.918 223.430
20.419614 49962.879 223.524
20.436799 50057.238 223.735
20.453984 50117.398 223.869
20.471169 50235.246 224.132
20.488355 50399.473 224.498
20.505542 50476.172 224.669
20.522729 50475.305 224.667
20.539916 50575.164 224.889
20.557104 50657.707 225.073
20.574292 50723.191 225.218
20.591481 50836.344 225.469
20.608670 50915.137 225.644
20.625860 50925.406 225.667
20.643050 50970.898 225.767
20.660241 51032.684 225.904
20.677432 51134.527 226.129
20.694624 51207.699 226.291
20.711816 51281.832 226.455
20.729008 51292.863 226.479
20.746201 51302.070 226.500
20.763395 51419.648 226.759
20.780589 51522.707 226.986
20.797783 51595.094 227.146
20.814978 51706.359 227.390
20.832174 51728.473 227.439
20.849370 51778.570 227.549
20.866566 51831.809 227.666
20.883763 51871.473 227.753
20.900960 51980.871 227.993
20.918158 52074.449 228.198
20.935356 52042.168 228.128
20.952555 52102.500 228.260
20.969754 52194.301 228.461
20.986954 52199.875 228.473
21.004154 52204.051 228.482
21.021354 52292.004 228.674
21.038556 52297.375 228.686
21.055757 52317.895 228.731
21.072959 52308.684 228.711
21.090162 52327.023 228.751
21.107365 52468.371 229.060
21.124568 52562.383 229.265
21.141772 52534.539 229.204
21.158977 52639.348 229.433
21.176182 52778.551 229.736
21.193387 52759.859 229.695
21.210593 52769.711 229.717
21.227800 52823.285 229.833
21.245007 52880.188 229.957
21.262214 52857.930 229.909
21.279422 52895.543 229.990
21.296630 52878.133 229.952
21.313839 52971.180 230.155
21.331048 52956.125 230.122
21.348258 53024.449 230.270
21.365468 52984.926 230.185
21.382679 53020.426 230.262
21.399890 53069.812 230.369
21.417102 53075.023 230.380
21.434314 53059.992 230.348
21.451527 53122.871 230.484
21.468740 53074.926 230.380
21.485954 53119.266 230.476
21.503168 53144.137 230.530
21.520383 53127.363 230.494
21.537598 53155.660 230.555
21.554814 53146.078 230.534
21.572030 53136.531 230.514
21.589247 53150.293 230.543
21.606464 53192.527 230.635
21.623682 53184.691 230.618
21.640900 53171.078 230.589
21.658118 53159.480 230.563
21.675338 53156.566 230.557
21.692557 53174.867 230.597
21.709777 53204.594 230.661
21.726998 53199.051 230.649
21.744219 53190.973 230.632
21.761441 53214.625 230.683
21.778663 53197.609 230.646
21.795885 53194.449 230.639
21.813109 53141.648 230.525
21.830332 53113.617 230.464
21.847556 53137.883 230.517
21.864781 53162.730 230.570
21.882006 53093.844 230.421
21.899232 53122.617 230.483
21.916458 53086.723 230.406
21.933684 53045.090 230.315
21.950912 53033.480 230.290
21.968139 52977.680 230.169
21.985367 52992.184 230.200
22.002596 52989.961 230.195
22.019825 52995.559 230.208
22.037055 52863.066 229.920
22.054285 52800.477 229.784
22.071515 52740.672 229.653
22.088747 52758.496 229.692
22.105978 52761.355 229.698
22.123210 52755.133 229.685
22.140443 52753.793 229.682
22.157676 52643.715 229.442
22.174910 52613.406 229.376
22.192144 52555.145 229.249
22.209379 52561.332 229.263
22.226614 52488.387 229.103
22.243850 52420.523 228.955
22.261086 52423.238 228.961
22.278323 52371.188 228.848
22.295560 52353.785 228.809
22.312798 52248.172 228.579
22.330036 52150.797 228.365
22.347275 52073.812 228.197
22.364514 52045.750 228.135
22.381754 52008.133 228.053
22.398994 51953.855 227.934
22.416235 51904.824 227.826
22.433476 51825.547 227.652
22.450718 51810.906 227.620
22.467961 51741.082 227.467
22.485204 51710.805 227.400
22.502447 51661.328 227.291
22.519691 51550.023 227.046
22.536935 51458.840 226.845
22.554180 51377.422 226.666
22.571426 51371.488 226.653
22.588672 51289.188 226.471
22.605918 51236.449 226.355
22.623165 51183.562 226.238
22.640413 51056.992 225.958
22.657661 50977.859 225.783
22.674909 50942.047 225.703
22.692159 50916.414 225.647
22.709408 50783.910 225.353
22.726658 50693.277 225.152
22.743909 50673.723 225.108
22.761160 50557.441 224.850
22.778412 50465.590 224.645
22.795664 50398.211 224.495
22.812917 50343.109 224.373
22.830170 50241.941 224.147
22.847424 50175.621 223.999
22.864678 50149.602 223.941
22.881933 49967.508 223.534
22.899189 49839.930 223.249
22.916445 49758.051 223.065
22.933701 49730.262 223.003
22.950958 49641.453 222.804
22.968216 49520.344 222.532
22.985474 49480.078 222.441
23.002732 49374.656 222.204
23.019991 49282.371 221.996
23.037251 49171.539 221.747
23.054511 49104.965 221.596
23.071772 49026.621 221.420
23.089033 48938.250 221.220
23.106295 48851.855 221.025
23.123557 48815.727 220.943
23.140820 48677.242 220.629
23.158083 48545.996 220.332
23.175347 48459.664 220.136
23.192611 48402.102 220.005
23.209876 48311.422 219.799
23.227142 48210.906 219.570
23.244408 48144.031 219.417
23.261674 48044.359 219.190
23.278941 47946.406 218.967
23.296209 47789.953 218.609
23.313477 47740.895 218.497
23.330746 47628.117 218.239
23.348015 47496.336 217.937
23.365285 47405.750 217.729
23.382555 47385.203 217.681
23.399826 47257.004 217.387
23.417097 47117.824 217.066
23.434369 47027.516 216.858
23.451641 46934.105 216.643
23.468914 46829.469 216.401
23.486188 46740.211 216.195
23.503462 46622.301 215.922
23.520737 46534.680 215.719
23.538012 46411.680 215.434
23.555288 46276.738 215.120
23.572564 46177.344 214.889
23.589841 46137.160 214.796
23.607118 45994.824 214.464
23.624396 45881.238 214.199
23.641674 45822.223 214.061
23.658953 45711.879 213.803
23.676233 45592.289 213.524
23.693513 45454.895 213.202
23.710793 45417.309 213.113
23.728074 45289.082 212.812
23.745356 45124.211 212.425
23.762638 45045.664 212.240
23.779921 44981.004 212.087
23.797205 44893.410 211.881
23.814488 44768.180 211.585
23.831773 44620.270 211.235
23.849058 44522.441 211.003
23.866343 44416.570 210.752
23.883630 44338.664 210.567
23.900916 44242.754 210.340
23.918203 44135.102 210.084
23.935491 44035.547 209.846
23.952779 43916.551 209.563
23.970068 43802.664 209.291
23.987358 43701.328 209.049
24.004648 43577.320 208.752
24.021938 43529.777 208.638
24.039229 43433.191 208.406
24.056521 43292.926 208.070
24.073813 43249.613 207.965
24.091106 43142.090 207.707
24.108399 43035.137 207.449
24.125693 43010.324 207.389
24.142987 42992.609 207.347
24.160282 43076.961 207.550
24.177578 43152.051 207.731
24.194874 42921.281 207.175
24.212171 38913.500 197.265
24.229468 33297.633 182.476
24.246766 21586.803 146.924
24.264064 6863.524 82.846
24.281363 6005.917 77.498
24.298662 0.000 1.000
24.315962 0.000 1.000
24.333263 0.000 1.000
24.350564 0.000 1.000
24.367866 0.000 1.000
24.385168 0.000 1.000
24.402471 0.000 1.000
24.419774 0.000 1.000
24.437078 0.000 1.000
24.454383 0.000 1.000
24.471688 0.000 1.000
24.488993 0.000 1.000
24.506300 0.000 1.000
24.523607 0.000 1.000
24.540914 0.000 1.000
24.558222 0.000 1.000
24.575530 0.000 1.000
24.592839 0.000 1.000
24.610149 0.000 1.000
24.627459 0.000 1.000
24.644770 0.000 1.000
24.662081 0.000 1.000
24.679393 0.000 1.000
24.696706 0.000 1.000
24.714019 0.000 1.000
24.731333 0.000 1.000
24.748647 0.000 1.000
24.765962 0.000 1.000
24.783277 0.000 1.000
24.800593 0.000 1.000
24.817909 0.000 1.000
24.835226 0.000 1.000
24.852544 0.000 1.000
24.869862 0.000 1.000
24.887181 0.000 1.000
24.904501 0.000 1.000
24.921821 49359.961 222.171
24.939141 47988.953 219.064
24.956462 44272.758 210.411
24.973784 43344.109 208.192
24.991106 40101.496 200.254
25.008429 38517.641 196.259
25.025753 38124.668 195.255
25.043077 37889.562 194.652
25.060401 37752.324 194.300
25.077726 37630.301 193.985
25.095052 37488.977 193.621
25.112379 37272.980 193.062
25.129706 37200.449 192.874
25.147033 37168.984 192.793
25.164361 37087.781 192.582
25.181690 36952.543 192.230
25.199019 36855.965 191.979
25.216349 36711.723 191.603
25.233680 36605.488 191.326
25.251011 36488.141 191.019
25.268342 36420.438 190.841
25.285674 36336.281 190.621
